n_lines = 44
Unit of Inte: [ph/(s m^2 sr)]
Assumed plasma length [m] = 0.00500000
Te [eV] = 0.52204407+/-0.037787354
Intercept = 33.680709+/-0.48154918
bestnorm: the value of the summed squared residuals for the returned parameter values.
bestnorm = 6.9330405

 Wavelength(nm) wavel_l(nm) wavel_u(nm) Aki(s^-1) fik Ei(eV) Ek(eV) gi gk Iki ln(Iki/gk*Aki)
       379.20150       379.10788       379.38797       900000.00    0.0019400000       0.0000000       3.2686810       4.0000000       4.0000000   3.3086956e+18       27.546641
       400.68350       400.54288       400.86395       760000.00    0.0024500000      0.24922100       3.3426710       6.0000000       8.0000000   3.4473262e+18       27.063615
       402.69440       402.52310       402.82101       3600000.0    0.0088000000      0.75244900       3.8304510       4.0000000       4.0000000   3.2276148e+18       26.135536
       404.08700       403.94019       404.26410       730000.00    0.0022000000      0.69692000       3.7643110       10.000000       12.000000   6.6131499e+18       27.349885
       406.13990       405.96280       406.38864       6500000.0     0.032200000      0.75003200       3.8019330       2.0000000       4.0000000   6.4665063e+18       26.239561
       406.46300       406.38864       406.58917       3830000.0    0.0095000000      0.75244900       3.8019330       4.0000000       4.0000000   3.2323509e+18       26.075072
       406.79080       406.71457       406.91528       840000.00    0.0028000000      0.24922100       3.2962350       6.0000000       8.0000000   3.3098205e+18       26.922827
       413.61980       413.52002       413.77527       1820000.0    0.0035000000      0.49146300       3.4881570       8.0000000       6.0000000   4.7461314e+18       26.797755
       414.78910       414.69553       414.95151       1790000.0    0.0036900000      0.69692000       3.6851760       10.000000       8.0000000   4.9868965e+18       26.576178
       438.60680       438.51056       438.86313       1030000.0    0.0045000000      0.75244900       3.5784330       4.0000000       6.0000000   3.8585458e+18       27.159993
       457.43060       457.26721       457.63538       1230000.0    0.0038400000       0.0000000       2.7096830       4.0000000       4.0000000   1.0632299e+19       28.401609
       461.95120       461.84827       462.13434       5300000.0     0.011200000       1.1472790       3.8304510       6.0000000       4.0000000   5.4892366e+18       26.279809
       466.91430       466.79449       467.14160       2850000.0    0.0062000000       1.1472790       3.8019330       6.0000000       4.0000000   3.3809285e+18       26.415558
       474.01630       473.93417       474.16919       5000000.0     0.016900000       1.2368430       3.8517350       4.0000000       4.0000000   2.9927425e+18       25.731479
       478.09350       477.97534       478.36063       2160000.0    0.0059000000       1.3254310       3.9180180       10.000000       8.0000000   4.4334888e+18       26.270658
       481.27490       481.09647       481.48434       1200000.0    0.0042000000       0.0000000       2.5754390       4.0000000       4.0000000   1.3032293e+19       28.629836
       482.54290       482.35077       482.79953       2630000.0    0.0092000000       1.3940320       3.9627110       6.0000000       6.0000000   4.2058140e+18       26.308746
       488.39500       488.30911       488.52112       1110000.0    0.0053000000       1.1472790       3.6851760       6.0000000       8.0000000   2.7962645e+18       26.475504
       492.60050       492.44525       492.84250       1530000.0    0.0056000000      0.75244900       3.2686810       4.0000000       4.0000000   5.2777017e+18       27.482950
       506.78700       506.60773       506.95370       2920000.0    0.0084000000       1.5169170       3.9627110       8.0000000       6.0000000   2.6011639e+18       25.723637
       513.64670       513.44525       513.85974       4500000.0     0.017800000      0.75003200       3.1631630       2.0000000       2.0000000   9.2973500e+18       27.663526
       514.16200       514.08307       514.30646       1200000.0    0.0023800000      0.75244900       3.1631630       4.0000000       2.0000000   2.0300149e+18       27.463596
       514.36870       514.30646       514.53003       1680000.0    0.0044000000       1.1472790       3.5570210       6.0000000       4.0000000   1.9822697e+18       26.410175
       514.76200       514.68970       515.04132       900000.00    0.0023800000       1.3940320       3.8019330       6.0000000       4.0000000   1.9175865e+18       27.001155
       540.25070       539.96283       540.43256       1350000.0    0.0029600000       0.0000000       2.2942930       4.0000000       2.0000000   1.0770016e+19       29.014535
       543.52670       543.42816       543.76581       1070000.0    0.0071000000       1.3576540       3.6381250       4.0000000       6.0000000   2.3750826e+18       26.636635
       562.06840       561.92975       562.27893       600000.00    0.0035500000       1.5169170       3.7221540       8.0000000       10.000000   1.8713972e+18       26.465947
       563.57100       563.46765       563.88782       360000.00    0.0017000000       1.3576540       3.5570210       4.0000000       4.0000000   3.4532052e+18       28.505681
       564.59110       564.34332       564.86938       1430000.0    0.0091000000       1.1472790       3.3426710       6.0000000       8.0000000   7.2121222e+18       27.169668
       581.11040       580.84436       581.34961       570000.00    0.0021500000      0.49146300       2.6244490       8.0000000       6.0000000   8.1427539e+18       28.498509
       587.73550       587.48346       588.03094       2330000.0     0.014500000       1.6553690       3.7643110       10.000000       12.000000   1.0953663e+19       26.693920
       593.97650       593.71820       594.23462       1600000.0     0.016900000       1.2099580       3.2967440       2.0000000       4.0000000   4.4751087e+18       27.273254
       594.40240       594.23462       594.82526       2130000.0     0.017000000       1.2368430       3.3221270       4.0000000       6.0000000   8.0623486e+18       27.170345
       599.72340       599.45990       599.98120       2400000.0     0.012900000       1.6553690       3.7221540       10.000000       10.000000   8.4489380e+18       26.587008
       630.95790       630.75647       631.22614       1830000.0     0.016400000       1.3576540       3.3221270       4.0000000       6.0000000   1.0082936e+19       27.545790
       632.50830       632.20575       632.95123       340000.00    0.0041000000      0.75003200       2.7096830       2.0000000       4.0000000   4.7886743e+18       28.889790
       638.94470       638.54999       639.14423       11700000.     0.057000000       2.6226790       4.5626040       10.000000       8.0000000   3.4882422e+18       24.341389
       645.03600       644.79633       645.27618       2200000.0     0.017200000       1.5169170       3.4385070       8.0000000       10.000000   1.1611365e+19       26.991963
       648.53700       648.32343       649.16785       5800000.0     0.036600000       1.6553690       3.5666100       10.000000       10.000000   2.2543029e+19       26.686004
       661.19500       660.93890       661.43042       1880000.0    0.0082000000       1.3940320       3.2686810       6.0000000       4.0000000   5.8450377e+18       27.379048
       662.13000       661.92230       662.45551       303000.00    0.0029900000      0.75244900       2.6244490       4.0000000       6.0000000   3.7596013e+18       28.357597
       686.62300       686.37512       686.92731       2580000.0     0.013700000       1.5169170       3.3221270       8.0000000       6.0000000   1.0744059e+19       27.265825
       696.61300       696.20776       696.93988       1210000.0    0.0088000000       1.5169170       3.2962350       8.0000000       8.0000000   1.8303873e+19       28.268072
       740.78900       740.44891       741.13379       2030000.0     0.011100000       1.3940320       3.0672490       6.0000000       4.0000000   9.0674036e+18       27.741377
