n_lines = 44
Unit of Inte: [ph/(s m^2 sr)]
Assumed plasma length [m] = 0.00500000
Te [eV] = 0.54154846+/-0.047761234
Intercept = 34.623430+/-0.56560002
bestnorm: the value of the summed squared residuals for the returned parameter values.
bestnorm = 9.5644760

 Wavelength(nm) wavel_l(nm) wavel_u(nm) Aki(s^-1) fik Ei(eV) Ek(eV) gi gk Iki ln(Iki/gk*Aki)
       379.20150       379.13123       379.34128       900000.00    0.0019400000       0.0000000       3.2686810       4.0000000       4.0000000   1.1331539e+19       28.777677
       400.68350       400.56757       400.91339       760000.00    0.0024500000      0.24922100       3.3426710       6.0000000       8.0000000   9.3892607e+18       28.065583
       402.69440       402.49829       402.87070       3600000.0    0.0088000000      0.75244900       3.8304510       4.0000000       4.0000000   9.1914869e+18       27.182071
       404.08700       403.96509       404.38876       730000.00    0.0022000000      0.69692000       3.7643110       10.000000       12.000000   2.6677549e+19       28.744648
       406.13990       406.11304       406.41370       6500000.0     0.032200000      0.75003200       3.8019330       2.0000000       4.0000000   1.4195703e+19       27.025864
       406.46300       406.41370       406.61426       3830000.0    0.0095000000      0.75244900       3.8019330       4.0000000       4.0000000   8.8753354e+18       27.085138
       406.79080       406.73965       406.94040       840000.00    0.0028000000      0.24922100       3.2962350       6.0000000       8.0000000   1.0111140e+19       28.039571
       413.61980       413.52002       413.82635       1820000.0    0.0035000000      0.49146300       3.4881570       8.0000000       6.0000000   1.4898030e+19       27.941654
       414.78910       414.72110       414.97711       1790000.0    0.0036900000      0.69692000       3.6851760       10.000000       8.0000000   1.4830188e+19       27.666029
       438.60680       438.51056       438.83600       1030000.0    0.0045000000      0.75244900       3.5784330       4.0000000       6.0000000   1.2178273e+19       28.309356
       457.43060       457.32382       457.69202       1230000.0    0.0038400000       0.0000000       2.7096830       4.0000000       4.0000000   3.0115907e+19       29.442766
       461.95120       461.87686       462.16296       5300000.0     0.011200000       1.1472790       3.8304510       6.0000000       4.0000000   1.8500081e+19       27.494795
       466.91430       466.70776       467.19949       2850000.0    0.0062000000       1.1472790       3.8019330       6.0000000       4.0000000   1.4113815e+19       27.844562
       474.01630       473.96353       474.28674       5000000.0     0.016900000       1.2368430       3.8517350       4.0000000       4.0000000   8.9063577e+18       26.822054
       478.09350       478.00494       478.36063       2160000.0    0.0059000000       1.3254310       3.9180180       10.000000       8.0000000   1.5037479e+19       27.492017
       481.27490       481.06665       481.51419       1200000.0    0.0042000000       0.0000000       2.5754390       4.0000000       4.0000000   3.5393163e+19       29.628924
       482.54290       482.38068       482.76959       2630000.0    0.0092000000       1.3940320       3.9627110       6.0000000       6.0000000   1.3862378e+19       27.501456
       488.39500       488.33939       488.55142       1110000.0    0.0053000000       1.1472790       3.6851760       6.0000000       8.0000000   9.3671605e+18       27.684430
       492.60050       492.47580       492.87308       1530000.0    0.0056000000      0.75244900       3.2686810       4.0000000       4.0000000   1.6576375e+19       28.627438
       506.78700       506.63919       506.98517       2920000.0    0.0084000000       1.5169170       3.9627110       8.0000000       6.0000000   9.9099178e+18       27.061214
       513.64670       513.41333       513.89160       4500000.0     0.017800000      0.75003200       3.1631630       2.0000000       2.0000000   3.1236163e+19       28.875373
       514.16200       514.08307       514.33838       1200000.0    0.0023800000      0.75244900       3.1631630       4.0000000       2.0000000   9.2358344e+18       28.978643
       514.36870       514.33838       514.53003       1680000.0    0.0044000000       1.1472790       3.5570210       6.0000000       4.0000000   6.2550035e+18       27.559315
       514.76200       514.68970       515.04132       900000.00    0.0023800000       1.3940320       3.8019330       6.0000000       4.0000000   6.5918341e+18       28.235919
       540.25070       539.99640       540.46613       1350000.0    0.0029600000       0.0000000       2.2942930       4.0000000       2.0000000   3.3321060e+19       30.143959
       543.52670       543.42816       543.83337       1070000.0    0.0071000000       1.3576540       3.6381250       4.0000000       6.0000000   9.1202729e+18       27.982103
       562.06840       561.96466       562.31384       600000.00    0.0035500000       1.5169170       3.7221540       8.0000000       10.000000   6.7493791e+18       27.748712
       563.57100       563.39764       563.95789       360000.00    0.0017000000       1.3576540       3.5570210       4.0000000       4.0000000   1.4165332e+19       29.917176
       564.59110       564.27319       564.90448       1430000.0    0.0091000000       1.1472790       3.3426710       6.0000000       8.0000000   2.1740446e+19       28.273080
       581.11040       580.88043       581.45795       570000.00    0.0021500000      0.49146300       2.6244490       8.0000000       6.0000000   2.5092187e+19       29.623937
       587.73550       587.55640       588.03094       2330000.0     0.014500000       1.6553690       3.7643110       10.000000       12.000000   3.2168238e+19       27.771226
       593.97650       593.79199       594.30841       1600000.0     0.016900000       1.2099580       3.2967440       2.0000000       4.0000000   1.4743530e+19       28.465527
       594.40240       594.30841       594.75140       2130000.0     0.017000000       1.2368430       3.3221270       4.0000000       6.0000000   2.4983589e+19       28.301359
       599.72340       599.45990       600.16748       2400000.0     0.012900000       1.6553690       3.7221540       10.000000       10.000000   2.8127347e+19       27.789710
       630.95790       630.71735       631.22614       1830000.0     0.016400000       1.3576540       3.3221270       4.0000000       6.0000000   2.8729399e+19       28.592867
       632.50830       632.40186       633.02972       340000.00    0.0041000000      0.75003200       2.7096830       2.0000000       4.0000000   1.1286852e+19       29.747175
       638.94470       638.70837       639.22351       11700000.     0.057000000       2.6226790       4.5626040       10.000000       8.0000000   1.2933972e+19       25.651848
       645.03600       644.83630       645.35620       2200000.0     0.017200000       1.5169170       3.4385070       8.0000000       10.000000   3.9206975e+19       28.208833
       648.53700       648.28320       648.96667       5800000.0     0.036600000       1.6553690       3.5666100       10.000000       10.000000   7.6990523e+19       27.914260
       661.19500       661.02081       661.47137       1880000.0    0.0082000000       1.3940320       3.2686810       6.0000000       4.0000000   2.0714141e+19       28.644272
       662.13000       661.84027       662.41449       303000.00    0.0029900000      0.75244900       2.6244490       4.0000000       6.0000000   1.4471230e+19       29.705447
       686.62300       686.46002       687.01227       2580000.0     0.013700000       1.5169170       3.3221270       8.0000000       6.0000000   3.2155178e+19       28.362046
       696.61300       696.25079       696.98291       1210000.0    0.0088000000       1.5169170       3.2962350       8.0000000       8.0000000   8.4912887e+19       29.802585
       740.78900       740.54022       741.08807       2030000.0     0.011100000       1.3940320       3.0672490       6.0000000       4.0000000   2.6445555e+19       28.811779
