n_lines = 44
Unit of Inte: [ph/(s m^2 sr)]
Assumed plasma length [m] = 0.00500000
Te [eV] = 0.58355949+/-0.050646948
Intercept = 35.267744+/-0.51652537
bestnorm: the value of the summed squared residuals for the returned parameter values.
bestnorm = 7.9767458

 Wavelength(nm) wavel_l(nm) wavel_u(nm) Aki(s^-1) fik Ei(eV) Ek(eV) gi gk Iki ln(Iki/gk*Aki)
       379.20150       379.13123       379.36462       900000.00    0.0019400000       0.0000000       3.2686810       4.0000000       4.0000000   2.4368548e+19       29.543381
       400.68350       400.59225       400.91339       760000.00    0.0024500000      0.24922100       3.3426710       6.0000000       8.0000000   3.1089921e+19       29.262900
       402.69440       402.57275       402.87070       3600000.0    0.0088000000      0.75244900       3.8304510       4.0000000       4.0000000   3.1194805e+19       28.404044
       404.08700       403.96509       404.36383       730000.00    0.0022000000      0.69692000       3.7643110       10.000000       12.000000   6.8477757e+19       29.687334
       406.13990       406.01288       406.31345       6500000.0     0.032200000      0.75003200       3.8019330       2.0000000       4.0000000   5.7654104e+19       28.427386
       406.46300       406.41370       406.61426       3830000.0    0.0095000000      0.75244900       3.8019330       4.0000000       4.0000000   3.2096192e+19       28.370599
       406.79080       406.61426       406.94040       840000.00    0.0028000000      0.24922100       3.2962350       6.0000000       8.0000000   4.1107955e+19       29.442135
       413.61980       413.52002       413.85190       1820000.0    0.0035000000      0.49146300       3.4881570       8.0000000       6.0000000   4.5326546e+19       29.054318
       414.78910       414.61874       414.97711       1790000.0    0.0036900000      0.69692000       3.6851760       10.000000       8.0000000   5.1203254e+19       28.905167
       438.60680       438.51056       438.83600       1030000.0    0.0045000000      0.75244900       3.5784330       4.0000000       6.0000000   3.7763019e+19       29.441033
       457.43060       457.32382       457.72037       1230000.0    0.0038400000       0.0000000       2.7096830       4.0000000       4.0000000   7.6492106e+19       30.374900
       461.95120       461.73389       462.19159       5300000.0     0.011200000       1.1472790       3.8304510       6.0000000       4.0000000   6.1977452e+19       28.703791
       466.91430       466.82343       467.19949       2850000.0    0.0062000000       1.1472790       3.8019330       6.0000000       4.0000000   3.9846297e+19       28.882437
       474.01630       473.96353       474.34552       5000000.0     0.016900000       1.2368430       3.8517350       4.0000000       4.0000000   3.1620701e+19       28.089101
       478.09350       478.00494       478.36063       2160000.0    0.0059000000       1.3254310       3.9180180       10.000000       8.0000000   4.1530800e+19       28.507907
       481.27490       481.09647       481.48434       1200000.0    0.0042000000       0.0000000       2.5754390       4.0000000       4.0000000   7.8469579e+19       30.425116
       482.54290       482.38068       482.76959       2630000.0    0.0092000000       1.3940320       3.9627110       6.0000000       6.0000000   3.9714734e+19       28.554000
       488.39500       488.33939       488.58173       1110000.0    0.0053000000       1.1472790       3.6851760       6.0000000       8.0000000   2.9825884e+19       28.842596
       492.60050       492.47580       492.90366       1530000.0    0.0056000000      0.75244900       3.2686810       4.0000000       4.0000000   5.2166891e+19       29.773907
       506.78700       506.67062       507.17398       2920000.0    0.0084000000       1.5169170       3.9627110       8.0000000       6.0000000   4.3676370e+19       28.544485
       513.64670       513.44525       513.92352       4500000.0     0.017800000      0.75003200       3.1631630       2.0000000       2.0000000   8.6342865e+19       29.892123
       514.16200       514.08307       514.33838       1200000.0    0.0023800000      0.75244900       3.1631630       4.0000000       2.0000000   2.5065767e+19       29.977055
       514.36870       514.33838       514.68970       1680000.0    0.0044000000       1.1472790       3.5570210       6.0000000       4.0000000   2.1248600e+19       28.782224
       514.76200       514.68970       515.04132       900000.00    0.0023800000       1.3940320       3.8019330       6.0000000       4.0000000   1.7921190e+19       29.236071
       540.25070       539.99640       540.46613       1350000.0    0.0029600000       0.0000000       2.2942930       4.0000000       2.0000000   8.1315310e+19       31.036104
       543.52670       543.46191       543.79956       1070000.0    0.0071000000       1.3576540       3.6381250       4.0000000       6.0000000   2.8757448e+19       29.130500
       562.06840       561.99957       562.41864       600000.00    0.0035500000       1.5169170       3.7221540       8.0000000       10.000000   1.9266295e+19       28.797619
       563.57100       563.43262       563.95789       360000.00    0.0017000000       1.3576540       3.5570210       4.0000000       4.0000000   2.8064105e+19       30.600869
       564.59110       564.30829       564.86938       1430000.0    0.0091000000       1.1472790       3.3426710       6.0000000       8.0000000   6.3813383e+19       29.349868
       581.11040       580.88043       581.45795       570000.00    0.0021500000      0.49146300       2.6244490       8.0000000       6.0000000   6.7599232e+19       30.614977
       587.73550       587.48346       588.03094       2330000.0     0.014500000       1.6553690       3.7643110       10.000000       12.000000   9.4876297e+19       28.852820
       593.97650       593.79199       594.27148       1600000.0     0.016900000       1.2099580       3.2967440       2.0000000       4.0000000   4.3449723e+19       29.546328
       594.40240       594.27148       594.93610       2130000.0     0.017000000       1.2368430       3.3221270       4.0000000       6.0000000   7.6360539e+19       29.418606
       599.72340       599.49713       600.16748       2400000.0     0.012900000       1.6553690       3.7221540       10.000000       10.000000   8.8585310e+19       28.936933
       630.95790       630.63910       631.22614       1830000.0     0.016400000       1.3576540       3.3221270       4.0000000       6.0000000   9.2802468e+19       29.765419
       632.50830       632.36261       633.02972       340000.00    0.0041000000      0.75003200       2.7096830       2.0000000       4.0000000   3.2728094e+19       30.811770
       638.94470       638.70837       639.22351       11700000.     0.057000000       2.6226790       4.5626040       10.000000       8.0000000   3.7950420e+19       26.728271
       645.03600       644.83630       645.35620       2200000.0     0.017200000       1.5169170       3.4385070       8.0000000       10.000000   1.0106478e+20       29.155740
       648.53700       648.20282       649.00690       5800000.0     0.036600000       1.6553690       3.5666100       10.000000       10.000000   2.1716144e+20       28.951219
       661.19500       660.85706       661.63531       1880000.0    0.0082000000       1.3940320       3.2686810       6.0000000       4.0000000   6.5588813e+19       29.796860
       662.13000       661.92230       662.57861       303000.00    0.0029900000      0.75244900       2.6244490       4.0000000       6.0000000   3.8890435e+19       30.694032
       686.62300       686.29016       686.96979       2580000.0     0.013700000       1.5169170       3.3221270       8.0000000       6.0000000   1.0662098e+20       29.560753
       696.61300       696.03564       696.98291       1210000.0    0.0088000000       1.5169170       3.2962350       8.0000000       8.0000000   3.5591547e+20       31.235652
       740.78900       740.35767       741.22510       2030000.0     0.011100000       1.3940320       3.0672490       6.0000000       4.0000000   8.1327441e+19       29.935174
