n_lines = 44
Unit of Inte: [ph/(s m^2 sr)]
Assumed plasma length [m] = 0.00500000
Te [eV] = 0.56233072+/-0.051888325
Intercept = 34.399530+/-0.56989463
bestnorm: the value of the summed squared residuals for the returned parameter values.
bestnorm = 9.7102758

 Wavelength(nm) wavel_l(nm) wavel_u(nm) Aki(s^-1) fik Ei(eV) Ek(eV) gi gk Iki ln(Iki/gk*Aki)
       379.20150       379.13123       379.41132       900000.00    0.0019400000       0.0000000       3.2686810       4.0000000       4.0000000   9.1723015e+18       28.566276
       400.68350       400.56757       400.86395       760000.00    0.0024500000      0.24922100       3.3426710       6.0000000       8.0000000   9.6166516e+18       28.089513
       402.69440       402.57275       402.87070       3600000.0    0.0088000000      0.75244900       3.8304510       4.0000000       4.0000000   1.0083421e+19       27.274685
       404.08700       403.96509       404.38876       730000.00    0.0022000000      0.69692000       3.7643110       10.000000       12.000000   2.8910679e+19       28.825036
       406.13990       405.98785       406.31345       6500000.0     0.032200000      0.75003200       3.8019330       2.0000000       4.0000000   1.9272627e+19       27.331610
       406.46300       406.41370       406.61426       3830000.0    0.0095000000      0.75244900       3.8019330       4.0000000       4.0000000   8.9808698e+18       27.096959
       406.79080       406.73965       406.94040       840000.00    0.0028000000      0.24922100       3.2962350       6.0000000       8.0000000   1.0104556e+19       28.038919
       413.61980       413.49451       413.82635       1820000.0    0.0035000000      0.49146300       3.4881570       8.0000000       6.0000000   1.5745957e+19       27.997009
       414.78910       414.56760       414.97711       1790000.0    0.0036900000      0.69692000       3.6851760       10.000000       8.0000000   1.6243928e+19       27.757083
       438.60680       438.51056       438.83600       1030000.0    0.0045000000      0.75244900       3.5784330       4.0000000       6.0000000   1.2552608e+19       28.339631
       457.43060       457.32382       457.66370       1230000.0    0.0038400000       0.0000000       2.7096830       4.0000000       4.0000000   3.0012702e+19       29.439333
       461.95120       461.73389       462.16296       5300000.0     0.011200000       1.1472790       3.8304510       6.0000000       4.0000000   1.9941714e+19       27.569834
       466.91430       466.82343       467.22842       2850000.0    0.0062000000       1.1472790       3.8019330       6.0000000       4.0000000   1.4064390e+19       27.841054
       474.01630       473.93417       474.28674       5000000.0     0.016900000       1.2368430       3.8517350       4.0000000       4.0000000   1.0392010e+19       26.976326
       478.09350       478.00494       478.36063       2160000.0    0.0059000000       1.3254310       3.9180180       10.000000       8.0000000   1.4545744e+19       27.458770
       481.27490       481.15613       481.51419       1200000.0    0.0042000000       0.0000000       2.5754390       4.0000000       4.0000000   3.5595847e+19       29.634634
       482.54290       482.38068       482.76959       2630000.0    0.0092000000       1.3940320       3.9627110       6.0000000       6.0000000   1.3330277e+19       27.462316
       488.39500       488.33939       488.58173       1110000.0    0.0053000000       1.1472790       3.6851760       6.0000000       8.0000000   9.0206848e+18       27.646740
       492.60050       492.47580       492.81192       1530000.0    0.0056000000      0.75244900       3.2686810       4.0000000       4.0000000   1.6825057e+19       28.642328
       506.78700       506.67062       507.23694       2920000.0    0.0084000000       1.5169170       3.9627110       8.0000000       6.0000000   1.4214857e+19       27.421966
       513.64670       513.47711       513.89160       4500000.0     0.017800000      0.75003200       3.1631630       2.0000000       2.0000000   3.0687820e+19       28.857662
       514.16200       514.08307       514.33838       1200000.0    0.0023800000      0.75244900       3.1631630       4.0000000       2.0000000   9.1727114e+18       28.971785
       514.36870       514.33838       514.53003       1680000.0    0.0044000000       1.1472790       3.5570210       6.0000000       4.0000000   6.3936138e+18       27.581233
       514.76200       514.68970       515.04132       900000.00    0.0023800000       1.3940320       3.8019330       6.0000000       4.0000000   6.5301863e+18       28.226523
       540.25070       539.99640       540.46613       1350000.0    0.0029600000       0.0000000       2.2942930       4.0000000       2.0000000   3.1758455e+19       30.095928
       543.52670       543.42816       543.79956       1070000.0    0.0071000000       1.3576540       3.6381250       4.0000000       6.0000000   8.4085513e+18       27.900852
       562.06840       561.96466       562.41864       600000.00    0.0035500000       1.5169170       3.7221540       8.0000000       10.000000   6.0469627e+18       27.638818
       563.57100       563.25769       563.95789       360000.00    0.0017000000       1.3576540       3.5570210       4.0000000       4.0000000   1.5700059e+19       30.020042
       564.59110       564.30829       564.90448       1430000.0    0.0091000000       1.1472790       3.3426710       6.0000000       8.0000000   2.2439392e+19       28.304723
       581.11040       580.77222       581.49408       570000.00    0.0021500000      0.49146300       2.6244490       8.0000000       6.0000000   2.5977993e+19       29.658630
       587.73550       587.55640       588.03094       2330000.0     0.014500000       1.6553690       3.7643110       10.000000       12.000000   3.3127007e+19       27.800595
       593.97650       593.75513       594.27148       1600000.0     0.016900000       1.2099580       3.2967440       2.0000000       4.0000000   1.4557839e+19       28.452853
       594.40240       594.27148       594.86218       2130000.0     0.017000000       1.2368430       3.3221270       4.0000000       6.0000000   2.6109564e+19       28.345441
       599.72340       599.60876       600.20471       2400000.0     0.012900000       1.6553690       3.7221540       10.000000       10.000000   2.5463947e+19       27.690231
       630.95790       630.48260       631.22614       1830000.0     0.016400000       1.3576540       3.3221270       4.0000000       6.0000000   2.6178820e+19       28.499896
       632.50830       632.28418       632.75494       340000.00    0.0041000000      0.75003200       2.7096830       2.0000000       4.0000000   7.6525762e+18       29.358579
       638.94470       638.70837       639.18384       11700000.     0.057000000       2.6226790       4.5626040       10.000000       8.0000000   1.1588780e+19       25.542028
       645.03600       644.83630       645.31622       2200000.0     0.017200000       1.5169170       3.4385070       8.0000000       10.000000   3.7920338e+19       28.175466
       648.53700       648.24304       649.20807       5800000.0     0.036600000       1.6553690       3.5666100       10.000000       10.000000   7.8478160e+19       27.933398
       661.19500       660.93890       661.47137       1880000.0    0.0082000000       1.3940320       3.2686810       6.0000000       4.0000000   2.0906773e+19       28.653528
       662.13000       661.96326       662.53760       303000.00    0.0029900000      0.75244900       2.6244490       4.0000000       6.0000000   1.4288446e+19       29.692735
       686.62300       686.29016       687.01227       2580000.0     0.013700000       1.5169170       3.3221270       8.0000000       6.0000000   3.8054151e+19       28.530482
       696.61300       696.20776       696.98291       1210000.0    0.0088000000       1.5169170       3.2962350       8.0000000       8.0000000   8.9912858e+19       29.859800
       740.78900       740.35767       741.27081       2030000.0     0.011100000       1.3940320       3.0672490       6.0000000       4.0000000   2.7078221e+19       28.835421
