n_lines = 44
Unit of Inte: [ph/(s m^2 sr)]
Assumed plasma length [m] = 0.00500000
Te [eV] = 0.59085195+/-0.052293142
Intercept = 35.235938+/-0.52023093
bestnorm: the value of the summed squared residuals for the returned parameter values.
bestnorm = 8.0916067

 Wavelength(nm) wavel_l(nm) wavel_u(nm) Aki(s^-1) fik Ei(eV) Ek(eV) gi gk Iki ln(Iki/gk*Aki)
       379.20150       379.13123       379.36462       900000.00    0.0019400000       0.0000000       3.2686810       4.0000000       4.0000000   2.3674653e+19       29.514492
       400.68350       400.59225       400.91339       760000.00    0.0024500000      0.24922100       3.3426710       6.0000000       8.0000000   3.0673513e+19       29.249416
       402.69440       402.57275       402.87070       3600000.0    0.0088000000      0.75244900       3.8304510       4.0000000       4.0000000   3.1748324e+19       28.421633
       404.08700       403.96509       404.36383       730000.00    0.0022000000      0.69692000       3.7643110       10.000000       12.000000   7.2749390e+19       29.747846
       406.13990       406.01288       406.31345       6500000.0     0.032200000      0.75003200       3.8019330       2.0000000       4.0000000   6.1980764e+19       28.499749
       406.46300       406.41370       406.61426       3830000.0    0.0095000000      0.75244900       3.8019330       4.0000000       4.0000000   3.4621871e+19       28.446348
       406.79080       406.61426       406.94040       840000.00    0.0028000000      0.24922100       3.2962350       6.0000000       8.0000000   4.4139073e+19       29.513278
       413.61980       413.52002       413.82635       1820000.0    0.0035000000      0.49146300       3.4881570       8.0000000       6.0000000   4.8178180e+19       29.115331
       414.78910       414.59317       414.97711       1790000.0    0.0036900000      0.69692000       3.6851760       10.000000       8.0000000   5.1191611e+19       28.904940
       438.60680       438.51056       438.86313       1030000.0    0.0045000000      0.75244900       3.5784330       4.0000000       6.0000000   3.8530307e+19       29.461148
       457.43060       457.32382       457.69202       1230000.0    0.0038400000       0.0000000       2.7096830       4.0000000       4.0000000   7.5773975e+19       30.365467
       461.95120       461.73389       462.19159       5300000.0     0.011200000       1.1472790       3.8304510       6.0000000       4.0000000   6.4269641e+19       28.740107
       466.91430       466.82343       467.19949       2850000.0    0.0062000000       1.1472790       3.8019330       6.0000000       4.0000000   4.1599805e+19       28.925503
       474.01630       473.96353       474.37491       5000000.0     0.016900000       1.2368430       3.8517350       4.0000000       4.0000000   2.6795065e+19       27.923507
       478.09350       478.00494       478.39029       2160000.0    0.0059000000       1.3254310       3.9180180       10.000000       8.0000000   4.3114166e+19       28.545323
       481.27490       481.09647       481.51419       1200000.0    0.0042000000       0.0000000       2.5754390       4.0000000       4.0000000   8.1692694e+19       30.465370
       482.54290       482.41058       482.76959       2630000.0    0.0092000000       1.3940320       3.9627110       6.0000000       6.0000000   4.2466570e+19       28.620995
       488.39500       488.33939       488.58173       1110000.0    0.0053000000       1.1472790       3.6851760       6.0000000       8.0000000   3.1613750e+19       28.900812
       492.60050       492.47580       492.87308       1530000.0    0.0056000000      0.75244900       3.2686810       4.0000000       4.0000000   5.4371793e+19       29.815305
       506.78700       506.63919       507.23694       2920000.0    0.0084000000       1.5169170       3.9627110       8.0000000       6.0000000   4.6323755e+19       28.603333
       513.64670       513.44525       513.92352       4500000.0     0.017800000      0.75003200       3.1631630       2.0000000       2.0000000   9.0093840e+19       29.934648
       514.16200       514.08307       514.33838       1200000.0    0.0023800000      0.75244900       3.1631630       4.0000000       2.0000000   2.4018952e+19       29.934396
       514.36870       514.33838       514.68970       1680000.0    0.0044000000       1.1472790       3.5570210       6.0000000       4.0000000   2.3187253e+19       28.869536
       514.76200       514.68970       515.04132       900000.00    0.0023800000       1.3940320       3.8019330       6.0000000       4.0000000   2.1656891e+19       29.425411
       540.25070       539.99640       540.46613       1350000.0    0.0029600000       0.0000000       2.2942930       4.0000000       2.0000000   8.5027846e+19       31.080748
       543.52670       543.46191       543.79956       1070000.0    0.0071000000       1.3576540       3.6381250       4.0000000       6.0000000   3.0042581e+19       29.174219
       562.06840       561.99957       562.41864       600000.00    0.0035500000       1.5169170       3.7221540       8.0000000       10.000000   1.9631329e+19       28.816388
       563.57100       563.39764       563.95789       360000.00    0.0017000000       1.3576540       3.5570210       4.0000000       4.0000000   2.9129219e+19       30.638120
       564.59110       564.30829       564.86938       1430000.0    0.0091000000       1.1472790       3.3426710       6.0000000       8.0000000   6.8634153e+19       29.422695
       581.11040       580.88043       581.49408       570000.00    0.0021500000      0.49146300       2.6244490       8.0000000       6.0000000   7.3781774e+19       30.702492
       587.73550       587.48346       588.03094       2330000.0     0.014500000       1.6553690       3.7643110       10.000000       12.000000   1.0104324e+20       28.915795
       593.97650       593.82886       594.27148       1600000.0     0.016900000       1.2099580       3.2967440       2.0000000       4.0000000   4.6609598e+19       29.616530
       594.40240       594.27148       594.78833       2130000.0     0.017000000       1.2368430       3.3221270       4.0000000       6.0000000   8.0970562e+19       29.477225
       599.72340       599.49713       600.16748       2400000.0     0.012900000       1.6553690       3.7221540       10.000000       10.000000   9.0946277e+19       28.963236
       630.95790       630.59998       631.22614       1830000.0     0.016400000       1.3576540       3.3221270       4.0000000       6.0000000   9.3958769e+19       29.777802
       632.50830       632.20575       633.02972       340000.00    0.0041000000      0.75003200       2.7096830       2.0000000       4.0000000   3.5351910e+19       30.888889
       638.94470       638.66882       639.22351       11700000.     0.057000000       2.6226790       4.5626040       10.000000       8.0000000   4.5360053e+19       26.906623
       645.03600       644.83630       645.35620       2200000.0     0.017200000       1.5169170       3.4385070       8.0000000       10.000000   1.1088870e+20       29.248506
       648.53700       648.20282       649.00690       5800000.0     0.036600000       1.6553690       3.5666100       10.000000       10.000000   2.2518823e+20       28.987515
       661.19500       660.93890       661.59436       1880000.0    0.0082000000       1.3940320       3.2686810       6.0000000       4.0000000   6.4499568e+19       29.780114
       662.13000       661.92230       662.45551       303000.00    0.0029900000      0.75244900       2.6244490       4.0000000       6.0000000   4.1098589e+19       30.749258
       686.62300       686.33264       687.01227       2580000.0     0.013700000       1.5169170       3.3221270       8.0000000       6.0000000   1.1097030e+20       29.600735
       696.61300       696.03564       696.98291       1210000.0    0.0088000000       1.5169170       3.2962350       8.0000000       8.0000000   3.5781124e+20       31.240965
       740.78900       740.35767       741.08807       2030000.0     0.011100000       1.3940320       3.0672490       6.0000000       4.0000000   7.9947808e+19       29.918065
