n_lines = 44
Unit of Inte: [ph/(s m^2 sr)]
Assumed plasma length [m] = 0.00500000
Te [eV] = 0.66865246+/-0.087783838
Intercept = 34.159754+/-0.68190234
bestnorm: the value of the summed squared residuals for the returned parameter values.
bestnorm = 13.902302

 Wavelength(nm) wavel_l(nm) wavel_u(nm) Aki(s^-1) fik Ei(eV) Ek(eV) gi gk Iki ln(Iki/gk*Aki)
       379.20150       379.13123       379.38797       900000.00    0.0019400000       0.0000000       3.2686810       4.0000000       4.0000000   1.4012705e+19       28.990052
       400.68350       400.64163       400.91339       760000.00    0.0024500000      0.24922100       3.3426710       6.0000000       8.0000000   1.8561679e+19       28.747116
       402.69440       402.59756       402.87070       3600000.0    0.0088000000      0.75244900       3.8304510       4.0000000       4.0000000   2.1492636e+19       28.031503
       404.08700       404.01492       404.28903       730000.00    0.0022000000      0.69692000       3.7643110       10.000000       12.000000   4.3302402e+19       29.229033
       406.13990       406.01288       406.31345       6500000.0     0.032200000      0.75003200       3.8019330       2.0000000       4.0000000   2.9233382e+19       27.748236
       406.46300       406.41370       406.63934       3830000.0    0.0095000000      0.75244900       3.8019330       4.0000000       4.0000000   2.3060222e+19       28.039971
       406.79080       406.63934       406.94040       840000.00    0.0028000000      0.24922100       3.2962350       6.0000000       8.0000000   3.1047410e+19       29.161448
       413.61980       413.57108       413.85190       1820000.0    0.0035000000      0.49146300       3.4881570       8.0000000       6.0000000   2.8247334e+19       28.581424
       414.78910       414.59317       414.97711       1790000.0    0.0036900000      0.69692000       3.6851760       10.000000       8.0000000   3.5034088e+19       28.525685
       438.60680       438.51056       438.80887       1030000.0    0.0045000000      0.75244900       3.5784330       4.0000000       6.0000000   2.7810044e+19       29.135100
       457.43060       457.29550       457.66370       1230000.0    0.0038400000       0.0000000       2.7096830       4.0000000       4.0000000   3.5102716e+19       29.595991
       461.95120       461.87686       462.19159       5300000.0     0.011200000       1.1472790       3.8304510       6.0000000       4.0000000   4.3833205e+19       28.357412
       466.91430       466.70776       467.14160       2850000.0    0.0062000000       1.1472790       3.8019330       6.0000000       4.0000000   3.7345362e+19       28.817616
       474.01630       473.93417       474.28674       5000000.0     0.016900000       1.2368430       3.8517350       4.0000000       4.0000000   2.3726587e+19       27.801885
       478.09350       478.03458       478.36063       2160000.0    0.0059000000       1.3254310       3.9180180       10.000000       8.0000000   2.6648671e+19       28.064211
       481.27490       481.15613       481.48434       1200000.0    0.0042000000       0.0000000       2.5754390       4.0000000       4.0000000   2.9039257e+19       29.431054
       482.54290       482.41058       482.76959       2630000.0    0.0092000000       1.3940320       3.9627110       6.0000000       6.0000000   3.4623699e+19       28.416816
       488.39500       488.33939       488.61203       1110000.0    0.0053000000       1.1472790       3.6851760       6.0000000       8.0000000   2.2943394e+19       28.580250
       492.60050       492.47580       492.87308       1530000.0    0.0056000000      0.75244900       3.2686810       4.0000000       4.0000000   3.9075736e+19       29.484961
       506.78700       506.67062       506.98517       2920000.0    0.0084000000       1.5169170       3.9627110       8.0000000       6.0000000   2.7160310e+19       28.069435
       513.64670       513.47711       513.92352       4500000.0     0.017800000      0.75003200       3.1631630       2.0000000       2.0000000   4.8512529e+19       29.315619
       514.16200       513.92352       514.33838       1200000.0    0.0023800000      0.75244900       3.1631630       4.0000000       2.0000000   2.1379139e+19       29.817968
       514.36870       514.33838       514.53003       1680000.0    0.0044000000       1.1472790       3.5570210       6.0000000       4.0000000   1.2253446e+19       28.231740
       514.76200       514.68970       515.04132       900000.00    0.0023800000       1.3940320       3.8019330       6.0000000       4.0000000   1.4816718e+19       29.045843
       540.25070       540.09698       540.46613       1350000.0    0.0029600000       0.0000000       2.2942930       4.0000000       2.0000000   2.8978914e+19       30.004338
       543.52670       543.42816       543.79956       1070000.0    0.0071000000       1.3576540       3.6381250       4.0000000       6.0000000   2.4794241e+19       28.982214
       562.06840       561.99957       562.34875       600000.00    0.0035500000       1.5169170       3.7221540       8.0000000       10.000000   1.8554960e+19       28.759999
       563.57100       563.39764       563.95789       360000.00    0.0017000000       1.3576540       3.5570210       4.0000000       4.0000000   2.3546366e+19       30.425349
       564.59110       564.48358       564.86938       1430000.0    0.0091000000       1.1472790       3.3426710       6.0000000       8.0000000   4.2494056e+19       28.943269
       581.11040       580.95258       581.49408       570000.00    0.0021500000      0.49146300       2.6244490       8.0000000       6.0000000   4.4851878e+19       30.204746
       587.73550       587.55640       588.03094       2330000.0     0.014500000       1.6553690       3.7643110       10.000000       12.000000   6.2765089e+19       28.439645
       593.97650       593.90259       594.27148       1600000.0     0.016900000       1.2099580       3.2967440       2.0000000       4.0000000   3.2947678e+19       29.269644
       594.40240       594.27148       594.75140       2130000.0     0.017000000       1.2368430       3.3221270       4.0000000       6.0000000   5.2447543e+19       29.042953
       599.72340       599.53436       600.16748       2400000.0     0.012900000       1.6553690       3.7221540       10.000000       10.000000   7.5053435e+19       28.771168
       630.95790       630.79559       631.22614       1830000.0     0.016400000       1.3576540       3.3221270       4.0000000       6.0000000   7.1686280e+19       29.507245
       632.50830       632.36261       633.02972       340000.00    0.0041000000      0.75003200       2.7096830       2.0000000       4.0000000   2.7044017e+19       30.621002
       638.94470       638.78760       639.26312       11700000.     0.057000000       2.6226790       4.5626040       10.000000       8.0000000   3.6052734e+19       26.676973
       645.03600       644.83630       645.39624       2200000.0     0.017200000       1.5169170       3.4385070       8.0000000       10.000000   6.5645523e+19       28.724248
       648.53700       648.36359       649.00690       5800000.0     0.036600000       1.6553690       3.5666100       10.000000       10.000000   1.2258392e+20       28.379374
       661.19500       660.89795       661.47137       1880000.0    0.0082000000       1.3940320       3.2686810       6.0000000       4.0000000   5.1284668e+19       29.550847
       662.13000       662.00427       662.41449       303000.00    0.0029900000      0.75244900       2.6244490       4.0000000       6.0000000   3.2178207e+19       30.504574
       686.62300       686.20526       687.01227       2580000.0     0.013700000       1.5169170       3.3221270       8.0000000       6.0000000   7.5282618e+19       29.212722
       696.61300       696.07867       697.19843       1210000.0    0.0088000000       1.5169170       3.2962350       8.0000000       8.0000000   4.4890204e+20       31.467764
       740.78900       740.49457       741.13379       2030000.0     0.011100000       1.3940320       3.0672490       6.0000000       4.0000000   6.0405354e+19       29.637769
