n_lines = 41
Unit of Inte: [ph/(s m^2 sr)]
Assumed plasma length [m] = 0.00500000
Te [eV] = 0.56004351+/-0.025179484
Intercept = 34.998480+/-0.27838855
bestnorm: the value of the summed squared residuals for the returned parameter values.
bestnorm = 2.1232880

 Wavelength(nm) wavel_l(nm) wavel_u(nm) Aki(s^-1) fik Ei(eV) Ek(eV) gi gk Iki ln(Iki/gk*Aki)
       379.20150       379.13123       379.34128       900000.00    0.0019400000       0.0000000       3.2686810       4.0000000       4.0000000   1.5801248e+19       29.110176
       400.68350       400.56757       400.88867       760000.00    0.0024500000      0.24922100       3.3426710       6.0000000       8.0000000   2.1555932e+19       28.896667
       402.69440       402.54791       402.84586       3600000.0    0.0088000000      0.75244900       3.8304510       4.0000000       4.0000000   2.0175012e+19       27.968238
       406.13990       405.98785       406.31345       6500000.0     0.032200000      0.75003200       3.8019330       2.0000000       4.0000000   3.8504982e+19       28.023712
       406.46300       406.41370       406.61426       3830000.0    0.0095000000      0.75244900       3.8019330       4.0000000       4.0000000   2.0010654e+19       27.898127
       406.79080       406.71457       406.94040       840000.00    0.0028000000      0.24922100       3.2962350       6.0000000       8.0000000   1.8738315e+19       28.656503
       413.61980       413.52002       413.87741       1820000.0    0.0035000000      0.49146300       3.4881570       8.0000000       6.0000000   2.8560002e+19       28.592432
       414.78910       414.69553       414.97711       1790000.0    0.0036900000      0.69692000       3.6851760       10.000000       8.0000000   3.1665916e+19       28.424605
       438.60680       438.51056       438.86313       1030000.0    0.0045000000      0.75244900       3.5784330       4.0000000       6.0000000   2.4331871e+19       29.001490
       457.43060       457.29550       457.72037       1230000.0    0.0038400000       0.0000000       2.7096830       4.0000000       4.0000000   5.4655626e+19       30.038765
       461.95120       461.76248       462.16296       5300000.0     0.011200000       1.1472790       3.8304510       6.0000000       4.0000000   3.8290642e+19       28.222225
       466.91430       466.79449       467.19949       2850000.0    0.0062000000       1.1472790       3.8019330       6.0000000       4.0000000   2.5871717e+19       28.450558
       474.01630       473.96353       474.34552       5000000.0     0.016900000       1.2368430       3.8517350       4.0000000       4.0000000   2.0538200e+19       27.657575
       478.09350       477.97534       478.36063       2160000.0    0.0059000000       1.3254310       3.9180180       10.000000       8.0000000   2.6979836e+19       28.076561
       481.27490       481.09647       481.48434       1200000.0    0.0042000000       0.0000000       2.5754390       4.0000000       4.0000000   5.9737392e+19       30.152363
       482.54290       482.38068       482.76959       2630000.0    0.0092000000       1.3940320       3.9627110       6.0000000       6.0000000   2.5708757e+19       28.119109
       488.39500       488.33939       488.58173       1110000.0    0.0053000000       1.1472790       3.6851760       6.0000000       8.0000000   1.9289085e+19       28.406759
       492.60050       492.47580       492.96478       1530000.0    0.0056000000      0.75244900       3.2686810       4.0000000       4.0000000   3.3267625e+19       29.324044
       506.78700       506.67062       507.17398       2920000.0    0.0084000000       1.5169170       3.9627110       8.0000000       6.0000000   2.8128223e+19       28.104451
       513.64670       513.44525       513.89160       4500000.0     0.017800000      0.75003200       3.1631630       2.0000000       2.0000000   5.9179739e+19       29.514376
       514.16200       514.08307       514.33838       1200000.0    0.0023800000      0.75244900       3.1631630       4.0000000       2.0000000   1.7038547e+19       29.591031
       514.36870       514.33838       514.68970       1680000.0    0.0044000000       1.1472790       3.5570210       6.0000000       4.0000000   1.5583069e+19       28.472118
       514.76200       514.68970       515.04132       900000.00    0.0023800000       1.3940320       3.8019330       6.0000000       4.0000000   1.2858783e+19       28.904114
       540.25070       540.02991       540.46613       1350000.0    0.0029600000       0.0000000       2.2942930       4.0000000       2.0000000   6.1060351e+19       30.749632
       543.52670       543.42816       543.79956       1070000.0    0.0071000000       1.3576540       3.6381250       4.0000000       6.0000000   1.7186495e+19       28.615727
       562.06840       561.99957       562.41864       600000.00    0.0035500000       1.5169170       3.7221540       8.0000000       10.000000   1.2487195e+19       28.363965
       564.59110       564.44849       564.83429       1430000.0    0.0091000000       1.1472790       3.3426710       6.0000000       8.0000000   4.0848250e+19       28.903769
       581.11040       580.77222       581.49408       570000.00    0.0021500000      0.49146300       2.6244490       8.0000000       6.0000000   4.8243698e+19       30.277646
       587.73550       587.48346       588.03094       2330000.0     0.014500000       1.6553690       3.7643110       10.000000       12.000000   6.3579452e+19       28.452537
       593.97650       593.75513       594.27148       1600000.0     0.016900000       1.2099580       3.2967440       2.0000000       4.0000000   2.8141534e+19       29.111970
       594.40240       594.27148       594.93610       2130000.0     0.017000000       1.2368430       3.3221270       4.0000000       6.0000000   5.2392842e+19       29.041910
       599.72340       599.49713       600.24200       2400000.0     0.012900000       1.6553690       3.7221540       10.000000       10.000000   5.7266024e+19       28.500675
       630.95790       630.56085       631.22614       1830000.0     0.016400000       1.3576540       3.3221270       4.0000000       6.0000000   5.6014650e+19       29.260559
       632.50830       632.36261       633.10828       340000.00    0.0041000000      0.75003200       2.7096830       2.0000000       4.0000000   2.2004557e+19       30.414786
       638.94470       638.78760       639.18384       11700000.     0.057000000       2.6226790       4.5626040       10.000000       8.0000000   2.6257212e+19       26.359931
       645.03600       644.83630       645.39624       2200000.0     0.017200000       1.5169170       3.4385070       8.0000000       10.000000   6.9718132e+19       28.784439
       648.53700       648.20282       649.12762       5800000.0     0.036600000       1.6553690       3.5666100       10.000000       10.000000   1.5136361e+20       28.590263
       661.19500       660.97986       661.59436       1880000.0    0.0082000000       1.3940320       3.2686810       6.0000000       4.0000000   4.0421149e+19       29.312808
       662.13000       662.00427       662.45551       303000.00    0.0029900000      0.75244900       2.6244490       4.0000000       6.0000000   2.6002489e+19       30.291476
       686.62300       686.41754       687.01227       2580000.0     0.013700000       1.5169170       3.3221270       8.0000000       6.0000000   6.9529458e+19       29.133223
       740.78900       740.54022       741.13379       2030000.0     0.011100000       1.3940320       3.0672490       6.0000000       4.0000000   5.1659023e+19       29.481356
