n_lines = 41
Unit of Inte: [ph/(s m^2 sr)]
Assumed plasma length [m] = 0.00500000
Te [eV] = 0.59481633+/-0.031116260
Intercept = 35.224121+/-0.30497912
bestnorm: the value of the summed squared residuals for the returned parameter values.
bestnorm = 2.5482755

 Wavelength(nm) wavel_l(nm) wavel_u(nm) Aki(s^-1) fik Ei(eV) Ek(eV) gi gk Iki ln(Iki/gk*Aki)
       379.20150       379.13123       379.38797       900000.00    0.0019400000       0.0000000       3.2686810       4.0000000       4.0000000   2.7340422e+19       29.658454
       400.68350       400.59225       400.91339       760000.00    0.0024500000      0.24922100       3.3426710       6.0000000       8.0000000   3.9453580e+19       29.501141
       402.69440       402.57275       402.87070       3600000.0    0.0088000000      0.75244900       3.8304510       4.0000000       4.0000000   3.6465189e+19       28.560151
       406.13990       406.01288       406.31345       6500000.0     0.032200000      0.75003200       3.8019330       2.0000000       4.0000000   6.5734075e+19       28.558542
       406.46300       406.41370       406.61426       3830000.0    0.0095000000      0.75244900       3.8019330       4.0000000       4.0000000   4.1060022e+19       28.616897
       406.79080       406.68948       406.94040       840000.00    0.0028000000      0.24922100       3.2962350       6.0000000       8.0000000   4.0833866e+19       29.435445
       413.61980       413.57108       413.82635       1820000.0    0.0035000000      0.49146300       3.4881570       8.0000000       6.0000000   4.7404991e+19       29.099153
       414.78910       414.69553       414.97711       1790000.0    0.0036900000      0.69692000       3.6851760       10.000000       8.0000000   5.8822584e+19       29.043890
       438.60680       438.48343       438.83600       1030000.0    0.0045000000      0.75244900       3.5784330       4.0000000       6.0000000   4.6194328e+19       29.642560
       457.43060       457.32382       457.69202       1230000.0    0.0038400000       0.0000000       2.7096830       4.0000000       4.0000000   7.5793629e+19       30.365727
       461.95120       461.76248       462.19159       5300000.0     0.011200000       1.1472790       3.8304510       6.0000000       4.0000000   7.7409251e+19       28.926126
       466.91430       466.82343       467.14160       2850000.0    0.0062000000       1.1472790       3.8019330       6.0000000       4.0000000   4.8603924e+19       29.081112
       474.01630       473.93417       474.28674       5000000.0     0.016900000       1.2368430       3.8517350       4.0000000       4.0000000   4.2232257e+19       28.378473
       478.09350       478.00494       478.36063       2160000.0    0.0059000000       1.3254310       3.9180180       10.000000       8.0000000   4.5898823e+19       28.607911
       481.27490       481.12628       481.51419       1200000.0    0.0042000000       0.0000000       2.5754390       4.0000000       4.0000000   8.0116675e+19       30.445889
       482.54290       482.38068       482.76959       2630000.0    0.0092000000       1.3940320       3.9627110       6.0000000       6.0000000   5.0252454e+19       28.789337
       488.39500       488.33939       488.58173       1110000.0    0.0053000000       1.1472790       3.6851760       6.0000000       8.0000000   4.0252054e+19       29.142381
       492.60050       492.47580       492.93420       1530000.0    0.0056000000      0.75244900       3.2686810       4.0000000       4.0000000   6.0768822e+19       29.926536
       506.78700       506.63919       507.01663       2920000.0    0.0084000000       1.5169170       3.9627110       8.0000000       6.0000000   4.1319317e+19       28.489008
       513.64670       513.47711       513.92352       4500000.0     0.017800000      0.75003200       3.1631630       2.0000000       2.0000000   9.3364948e+19       29.970313
       514.16200       514.08307       514.33838       1200000.0    0.0023800000      0.75244900       3.1631630       4.0000000       2.0000000   2.8115332e+19       30.091867
       514.36870       514.33838       514.68970       1680000.0    0.0044000000       1.1472790       3.5570210       6.0000000       4.0000000   2.3820628e+19       28.896485
       514.76200       514.68970       515.04132       900000.00    0.0023800000       1.3940320       3.8019330       6.0000000       4.0000000   2.4657588e+19       29.555172
       540.25070       540.02991       540.46613       1350000.0    0.0029600000       0.0000000       2.2942930       4.0000000       2.0000000   9.3871815e+19       31.179700
       543.52670       543.46191       543.79956       1070000.0    0.0071000000       1.3576540       3.6381250       4.0000000       6.0000000   3.4399370e+19       29.309641
       562.06840       561.99957       562.48853       600000.00    0.0035500000       1.5169170       3.7221540       8.0000000       10.000000   2.3796432e+19       29.008797
       564.59110       564.30829       564.86938       1430000.0    0.0091000000       1.1472790       3.3426710       6.0000000       8.0000000   7.6506536e+19       29.531281
       581.11040       580.70007       581.49408       570000.00    0.0021500000      0.49146300       2.6244490       8.0000000       6.0000000   8.8333322e+19       30.882498
       587.73550       587.48346       588.03094       2330000.0     0.014500000       1.6553690       3.7643110       10.000000       12.000000   1.1484802e+20       29.043856
       593.97650       593.79199       594.27148       1600000.0     0.016900000       1.2099580       3.2967440       2.0000000       4.0000000   5.4537917e+19       29.773619
       594.40240       594.27148       594.89911       2130000.0     0.017000000       1.2368430       3.3221270       4.0000000       6.0000000   9.3212926e+19       29.618026
       599.72340       599.45990       600.16748       2400000.0     0.012900000       1.6553690       3.7221540       10.000000       10.000000   1.1038305e+20       29.156924
       630.95790       630.48260       631.22614       1830000.0     0.016400000       1.3576540       3.3221270       4.0000000       6.0000000   1.0805174e+20       29.917556
       632.50830       632.36261       633.02972       340000.00    0.0041000000      0.75003200       2.7096830       2.0000000       4.0000000   4.0379413e+19       31.021857
       638.94470       638.70837       639.22351       11700000.     0.057000000       2.6226790       4.5626040       10.000000       8.0000000   5.1426945e+19       27.032153
       645.03600       644.83630       645.39624       2200000.0     0.017200000       1.5169170       3.4385070       8.0000000       10.000000   1.1964124e+20       29.324476
       648.53700       648.20282       649.00690       5800000.0     0.036600000       1.6553690       3.5666100       10.000000       10.000000   2.3653849e+20       29.036689
       661.19500       660.81610       661.47137       1880000.0    0.0082000000       1.3940320       3.2686810       6.0000000       4.0000000   7.6538679e+19       29.951251
       662.13000       662.00427       662.45551       303000.00    0.0029900000      0.75244900       2.6244490       4.0000000       6.0000000   4.4210089e+19       30.822237
       686.62300       686.33264       687.01227       2580000.0     0.013700000       1.5169170       3.3221270       8.0000000       6.0000000   1.2702433e+20       29.735851
       740.78900       740.31207       741.27081       2030000.0     0.011100000       1.3940320       3.0672490       6.0000000       4.0000000   9.4797171e+19       30.088431
