n_lines = 41
Unit of Inte: [ph/(s m^2 sr)]
Assumed plasma length [m] = 0.00500000
Te [eV] = 0.59560858+/-0.031757035
Intercept = 35.262916+/-0.31043177
bestnorm: the value of the summed squared residuals for the returned parameter values.
bestnorm = 2.6402101

 Wavelength(nm) wavel_l(nm) wavel_u(nm) Aki(s^-1) fik Ei(eV) Ek(eV) gi gk Iki ln(Iki/gk*Aki)
       379.20150       379.13123       379.36462       900000.00    0.0019400000       0.0000000       3.2686810       4.0000000       4.0000000   2.7406153e+19       29.660855
       400.68350       400.59225       400.91339       760000.00    0.0024500000      0.24922100       3.3426710       6.0000000       8.0000000   4.1616902e+19       29.554523
       402.69440       402.57275       402.87070       3600000.0    0.0088000000      0.75244900       3.8304510       4.0000000       4.0000000   4.0517005e+19       28.665515
       406.13990       406.01288       406.31345       6500000.0     0.032200000      0.75003200       3.8019330       2.0000000       4.0000000   6.8380790e+19       28.598017
       406.46300       406.41370       406.63934       3830000.0    0.0095000000      0.75244900       3.8019330       4.0000000       4.0000000   4.2277939e+19       28.646127
       406.79080       406.63934       406.94040       840000.00    0.0028000000      0.24922100       3.2962350       6.0000000       8.0000000   5.4527047e+19       29.724630
       413.61980       413.57108       413.87741       1820000.0    0.0035000000      0.49146300       3.4881570       8.0000000       6.0000000   4.9015264e+19       29.132557
       414.78910       414.59317       414.97711       1790000.0    0.0036900000      0.69692000       3.6851760       10.000000       8.0000000   6.0536894e+19       29.072617
       438.60680       438.51056       438.86313       1030000.0    0.0045000000      0.75244900       3.5784330       4.0000000       6.0000000   4.9180075e+19       29.705191
       457.43060       457.32382       457.69202       1230000.0    0.0038400000       0.0000000       2.7096830       4.0000000       4.0000000   7.7545593e+19       30.388579
       461.95120       461.76248       462.19159       5300000.0     0.011200000       1.1472790       3.8304510       6.0000000       4.0000000   7.8049989e+19       28.934369
       466.91430       466.79449       467.19949       2850000.0    0.0062000000       1.1472790       3.8019330       6.0000000       4.0000000   5.4016369e+19       29.186695
       474.01630       473.96353       474.22797       5000000.0     0.016900000       1.2368430       3.8517350       4.0000000       4.0000000   4.4759938e+19       28.436602
       478.09350       478.00494       478.39029       2160000.0    0.0059000000       1.3254310       3.9180180       10.000000       8.0000000   4.6985097e+19       28.631302
       481.27490       481.15613       481.48434       1200000.0    0.0042000000       0.0000000       2.5754390       4.0000000       4.0000000   7.5779513e+19       30.390233
       482.54290       482.41058       482.76959       2630000.0    0.0092000000       1.3940320       3.9627110       6.0000000       6.0000000   5.1610185e+19       28.815997
       488.39500       488.33939       488.58173       1110000.0    0.0053000000       1.1472790       3.6851760       6.0000000       8.0000000   4.1501668e+19       29.172953
       492.60050       492.47580       492.90366       1530000.0    0.0056000000      0.75244900       3.2686810       4.0000000       4.0000000   6.3344681e+19       29.968050
       506.78700       506.67062       506.98517       2920000.0    0.0084000000       1.5169170       3.9627110       8.0000000       6.0000000   4.2110322e+19       28.507971
       513.64670       513.44525       513.92352       4500000.0     0.017800000      0.75003200       3.1631630       2.0000000       2.0000000   9.7317558e+19       30.011776
       514.16200       514.08307       514.33838       1200000.0    0.0023800000      0.75244900       3.1631630       4.0000000       2.0000000   3.0614758e+19       30.177035
       514.36870       514.33838       514.68970       1680000.0    0.0044000000       1.1472790       3.5570210       6.0000000       4.0000000   2.4560148e+19       28.927058
       514.76200       514.68970       515.04132       900000.00    0.0023800000       1.3940320       3.8019330       6.0000000       4.0000000   2.2767364e+19       29.475415
       540.25070       539.99640       540.46613       1350000.0    0.0029600000       0.0000000       2.2942930       4.0000000       2.0000000   8.9559153e+19       31.132669
       543.52670       543.42816       543.79956       1070000.0    0.0071000000       1.3576540       3.6381250       4.0000000       6.0000000   3.5853333e+19       29.351040
       562.06840       561.96466       562.34875       600000.00    0.0035500000       1.5169170       3.7221540       8.0000000       10.000000   2.8878779e+19       29.202369
       564.59110       564.27319       564.83429       1430000.0    0.0091000000       1.1472790       3.3426710       6.0000000       8.0000000   7.8867220e+19       29.561671
       581.11040       580.88043       581.49408       570000.00    0.0021500000      0.49146300       2.6244490       8.0000000       6.0000000   8.9503403e+19       30.895657
       587.73550       587.48346       588.06744       2330000.0     0.014500000       1.6553690       3.7643110       10.000000       12.000000   1.1415778e+20       29.037828
       593.97650       593.79199       594.27148       1600000.0     0.016900000       1.2099580       3.2967440       2.0000000       4.0000000   5.7314097e+19       29.823270
       594.40240       594.27148       594.86218       2130000.0     0.017000000       1.2368430       3.3221270       4.0000000       6.0000000   9.5681953e+19       29.644169
       599.72340       599.42267       600.24200       2400000.0     0.012900000       1.6553690       3.7221540       10.000000       10.000000   1.1772416e+20       29.221312
       630.95790       630.52173       631.22614       1830000.0     0.016400000       1.3576540       3.3221270       4.0000000       6.0000000   1.1614580e+20       29.989792
       632.50830       632.36261       633.02972       340000.00    0.0041000000      0.75003200       2.7096830       2.0000000       4.0000000   4.3257742e+19       31.090713
       638.94470       638.66882       639.22351       11700000.     0.057000000       2.6226790       4.5626040       10.000000       8.0000000   5.3699643e+19       27.075397
       645.03600       644.83630       645.39624       2200000.0     0.017200000       1.5169170       3.4385070       8.0000000       10.000000   1.2014626e+20       29.328688
       648.53700       648.20282       649.00690       5800000.0     0.036600000       1.6553690       3.5666100       10.000000       10.000000   2.3968723e+20       29.049913
       661.19500       660.93890       661.47137       1880000.0    0.0082000000       1.3940320       3.2686810       6.0000000       4.0000000   7.8482021e+19       29.976325
       662.13000       661.88129       662.49658       303000.00    0.0029900000      0.75244900       2.6244490       4.0000000       6.0000000   5.3952336e+19       31.021385
       686.62300       686.37512       687.01227       2580000.0     0.013700000       1.5169170       3.3221270       8.0000000       6.0000000   1.3481855e+20       29.795402
       740.78900       740.31207       741.13379       2030000.0     0.011100000       1.3940320       3.0672490       6.0000000       4.0000000   9.9969483e+19       30.141556
